% Fluke TI32 calibration temperature (for IS2 file)
%
% Author: <beauducel@ipgp.fr>, July 2011
%
% Three IR images shots taken with emissivity = 1, read with Fluke 
% SmartView software:
%	- Scale -10 to 80°C
%		= freezer compartment (thanks to Pierre Agrinier)
%		= min/max temperatures: -18.64 to 36.06 °C
%	- Scale -10 to 200°C
%		= cigarette + lighter (thanks to Valérie Clouard)
%		= min/max temperatures: 26.10 to 197.28 °C
%	- Scale -10 to 600°C
%		= high-temperature ofen (thanks to Pierre Agrinier)
%		= min/max temperatures: 26.38 to 638.38 °C
%
% Then pixel temperatures are exported in ASCII files, and related to digital
% counts values found in raw IS2 files. A global linear interpolation produces
% the following table:
%
% 	First column = digital count (16 bits)
% 	Second column = temperature given from Fluke
%
  700  -19.07
  750  -16.42
  800  -13.84
  850  -11.33
  900   -8.88
  950   -6.49
 1000   -4.16
 1050   -1.83
 1100    0.39
 1150    2.57
 1200    4.70
 1250    6.78
 1300    8.82
 1350   10.82
 1400   12.79
 1450   14.71
 1500   16.60
 1550   18.46
 1600   20.28
 1650   22.08
 1700   23.84
 1750   25.58
 1800   27.29
 1850   29.08
 1900   30.74
 1950   32.37
 2000   33.98
 2050   35.57
 2100   37.14
 2150   38.69
 2200   40.21
 2250   41.72
 2300   43.21
 2350   44.68
 2400   46.14
 2450   47.58
 2500   49.01
 2550   50.42
 2600   51.81
 2650   53.20
 2700   54.57
 2750   55.93
 2800   57.27
 2850   58.60
 2900   59.93
 2950   61.24
 3000   62.54
 3050   63.84
 3100   65.12
 3150   66.39
 3200   67.66
 3250   68.91
 3300   70.17
 3350   71.41
 3400   72.64
 3450   73.87
 3500   75.09
 3550   76.30
 3600   77.50
 3650   78.70
 3700   79.89
 3750   81.08
 3800   82.26
 3850   83.43
 3900   84.60
 3950   85.77
 4000   86.79
 4050   87.87
 4100   88.93
 4150   89.99
 4200   91.04
 4250   92.09
 4300   93.12
 4350   94.16
 4400   95.18
 4450   96.20
 4500   97.21
 4550   98.21
 4600   99.21
 4650  100.20
 4700  101.19
 4750  102.17
 4800  103.15
 4850  104.12
 4900  105.08
 4950  106.04
 5000  107.00
 5100  108.89
 5200  110.76
 5300  112.61
 5400  114.44
 5500  116.26
 5600  118.05
 5700  119.83
 5800  121.59
 5900  123.34
 6000  125.06
 6100  126.78
 6200  128.48
 6300  130.16
 6400  131.83
 6500  133.48
 6600  135.12
 6700  136.75
 6800  138.37
 6900  139.96
 7000  141.55
 7100  143.12
 7200  144.69
 7300  146.24
 7400  147.77
 7500  149.30
 7600  150.82
 7700  152.32
 7800  153.81
 7900  155.29
 8000  156.77
 8100  158.23
 8200  159.68
 8300  161.12
 8400  162.55
 8500  163.97
 8600  165.38
 8700  166.79
 8800  168.18
 8900  169.56
 9000  170.94
 9100  172.31
 9200  173.66
 9300  175.01
 9400  176.36
 9500  177.69
 9600  179.01
 9700  180.33
 9800  181.65
 9900  182.94
10000  184.25
11000  196.81
11500  202.86
12000  208.77
12500  214.55
13000  220.21
13500  225.75
14000  231.20
14500  236.56
15000  241.82
15500  247.01
16000  252.13
16500  257.18
17000  262.16
17500  267.09
18000  271.96
18500  276.78
19000  281.56
19500  286.29
20000  290.98
20500  295.63
21000  300.24
21500  304.83
22000  309.38
22500  313.90
23000  318.39
23500  322.86
24000  327.31
24500  331.73
25000  336.12
25500  340.50
26000  344.86
26500  349.20
27000  353.53
27500  357.83
28000  362.12
28500  366.40
29000  370.66
29500  374.91
30000  379.15
30500  383.37
31000  387.58
31500  391.78
32000  395.98
32500  400.15
33000  404.32
33500  408.49
34000  412.64
34500  416.79
35000  420.92
35500  425.05
36000  429.17
36500  433.28
37000  437.40
37500  441.50
38000  445.59
38500  449.68
39000  453.76
39500  457.84
40000  461.92
40500  465.98
41000  470.04
41500  474.10
42000  478.15
42500  482.20
43000  486.24
43500  490.29
44000  494.32
44500  498.35
45000  502.38
45500  506.40
46000  510.43
46500  514.44
47000  518.45
47500  522.46
48000  526.48
48500  530.48
49000  534.49
49500  538.48
50000  542.47
50500  546.47
51000  550.46
51500  554.45
52000  558.44
52500  562.42
53000  566.40
53500  570.39
54000  574.36
54500  578.33
55000  582.31
55500  586.28
56000  590.25
56500  594.21
57000  598.18
57500  602.15
58000  606.11
58500  610.07
59000  614.03
59500  617.98
60000  621.94
60500  625.89
61000  629.85
61500  633.79
62000  637.75
62500  641.66
63000  645.58
63500  649.50
64000  653.42
64500  657.34
65000  661.26
